#Column 1: wavenumber k
#Column 2: non-linear GR
#Column 3: non-linear screening
#evaluated at a = 1.000000

0.01  10564.4  10564.6
0.010559  10843.5  10843.7
0.0111492  11110.9  11111.2
0.0117724  11364.9  11365.2
0.0124305  11603.7  11604
0.0131253  11825.6  11826
0.013859  12029.1  12029.6
0.0146337  12212.6  12213.2
0.0154517  12374.9  12375.5
0.0163154  12514.7  12515.4
0.0172274  12630.9  12631.7
0.0181904  12722.8  12723.7
0.0192072  12789.6  12790.6
0.0202809  12830.7  12831.8
0.0214145  12845.9  12847.2
0.0226116  12835  12836.3
0.0238755  12797.8  12799.4
0.0252101  12734.7  12736.4
0.0266193  12645.8  12647.7
0.0281073  12531.6  12533.7
0.0296784  12392.6  12394.9
0.0313374  12229.6  12232.2
0.0330891  12043.4  12046.2
0.0349387  11834.8  11837.9
0.0368917  11605  11608.4
0.0389539  11355.1  11358.8
0.0411314  11086.4  11090.3
0.0434305  10800.2  10804.5
0.0458582  10498  10502.6
0.0484216  10181.4  10186.4
0.0511283  9852.02  9857.39
0.0539863  9511.61  9517.36
0.057004  9161.95  9168.11
0.0601904  8804.9  8811.48
0.063555  8442.33  8449.34
0.0671076  8076.16  8083.6
0.0708588  7708.26  7716.14
0.0748197  7340.51  7348.83
0.0790019  6974.71  6983.48
0.083418  6612.61  6621.81
0.0880809  6255.85  6265.48
0.0930045  5905.95  5916.01
0.0982033  5564.32  5574.8
0.103693  5232.2  5243.08
0.109489  4910.7  4921.96
0.115609  4600.74  4612.36
0.122071  4303.1  4315.06
0.128895  4018.37  4030.64
0.1361  3747.01  3759.56
0.143708  3489.29  3502.1
0.151741  3245.37  3258.41
0.160223  3015.26  3028.49
0.169179  2798.86  2812.24
0.178636  2595.95  2609.44
0.188621  2406.23  2419.8
0.199165  2229.32  2242.94
0.210298  2064.77  2078.4
0.222053  1912.1  1925.69
0.234465  1770.75  1784.28
0.247572  1640.18  1653.6
0.26141  1519.8  1533.08
0.276023  1409.02  1422.13
0.291452  1307.25  1320.16
0.307744  1213.9  1226.57
0.324946  1128.4  1140.81
0.34311  1050.18  1062.3
0.362289  978.698  990.509
0.38254  913.436  924.912
0.403924  853.89  865.018
0.426502  799.585  810.338
0.450343  750.071  760.434
0.475516  704.92  714.881
0.502097  663.732  673.278
0.530163  626.13  635.25
0.559798  591.763  600.447
0.59109  560.302  568.542
0.624131  531.441  539.227
0.659019  504.895  512.233
0.695856  480.4  487.278
0.734754  457.713  464.134
0.775825  436.502  442.574
0.819192  416.776  422.395
0.864984  398.24  403.413
0.913335  380.726  385.344
0.964388  364.08  368.269
1.0183  348.169  351.951
1.07522  332.872  336.241
1.13532  318.089  321.073
1.19878  303.735  306.352
1.26579  289.738  292.012
1.33655  276.046  277.999
1.41126  262.618  264.271
1.49014  249.428  250.808
1.57344  236.46  237.61
1.66139  223.712  224.624
1.75426  211.191  211.9
1.85232  198.91  199.456
1.95586  186.889  187.292
2.06519  175.153  175.418
2.18063  163.73  163.879
2.30253  152.647  152.722
2.43123  141.935  141.958
2.56714  131.618  131.574
2.71063  121.741  121.621
2.86215  112.286  112.131
3.02214  103.29  103.132
3.19107  94.7611  94.6024
3.36945  86.7127  86.542
3.5578  79.146  78.9649
3.75667  72.06  71.8763
3.96666  65.4495  65.2768
4.18839  59.3052  59.1546
4.42251  53.615  53.4849
4.66973  48.3634  48.2392
4.93075  43.533  43.4153
5.20637  39.1043  38.9945
5.4974  35.0564  34.9568
5.8047  31.3675  31.2835
6.12917  28.0155  27.9427
6.47178  24.9777  24.9123
6.83354  22.232  22.1732
7.21552  19.7562  19.7039
7.61886  17.5292  17.4829
8.04474  15.5304  15.4897
8.49442  13.7402  13.705
8.96925  12.1402  12.1111
9.47061  10.7129  10.6876
10  9.44193  9.41998
